File: hw1/usgs_splib07/ASCIIdata_splib07b_cvASD/all_material/s07_ASD_Chalcedony_CU91-6A_XRD_NIC4aa_RREF.txt
s07_ASD Record=2526: Chalcedony CU91-6A XRD       NIC4aa RREF
-1.23e+34
-1.23e+34
-1.23e+34
-1.23e+34
-1.23e+34
-1.23e+34
-1.23e+34
-1.23e+34
-1.23e+34
-1.23e+34
-1.23e+34
-1.23e+34
-1.23e+34
-1.23e+34
-1.23e+34
-1.23e+34
-1.23e+34
-1.23e+34
-1.23e+34
-1.23e+34
-1.23e+34
-1.23e+34
-1.23e+34
-1.23e+34
-1.23e+34
-1.23e+34
-1.23e+34
-1.23e+34
-1.23e+34
-1.23e+34
-1.23e+34
-1.23e+34
-1.23e+34
-1.23e+34
-1.23e+34
-1.23e+34
-1.23e+34
-1.23e+34
-1.23e+34
-1.23e+34
-1.23e+34
-1.23e+34
-1.23e+34
-1.23e+34
-1.23e+34
-1.23e+34
-1.23e+34
-1.23e+34
-1.23e+34
-1.23e+34
-1.23e+34
-1.23e+34
-1.23e+34
-1.23e+34
-1.23e+34
-1.23e+34
-1.23e+34
-1.23e+34
-1.23e+34
-1.23e+34
-1.23e+34
-1.23e+34
-1.23e+34
-1.23e+34
-1.23e+34
-1.23e+34
-1.23e+34
-1.23e+34
-1.23e+34
-1.23e+34
-1.23e+34
-1.23e+34
-1.23e+34
-1.23e+34
-1.23e+34
-1.23e+34
-1.23e+34
-1.23e+34
-1.23e+34
-1.23e+34
-1.23e+34
-1.23e+34
-1.23e+34
-1.23e+34
-1.23e+34
-1.23e+34
-1.23e+34
-1.23e+34
-1.23e+34
-1.23e+34
-1.23e+34
-1.23e+34
-1.23e+34
-1.23e+34
-1.23e+34
-1.23e+34
-1.23e+34
-1.23e+34
-1.23e+34
-1.23e+34
-1.23e+34
-1.23e+34
-1.23e+34
-1.23e+34
-1.23e+34
-1.23e+34
-1.23e+34
-1.23e+34
-1.23e+34
-1.23e+34
-1.23e+34
-1.23e+34
-1.23e+34
-1.23e+34
-1.23e+34
-1.23e+34
-1.23e+34
-1.23e+34
-1.23e+34
-1.23e+34
-1.23e+34
-1.23e+34
-1.23e+34
-1.23e+34
-1.23e+34
-1.23e+34
-1.23e+34
-1.23e+34
-1.23e+34
-1.23e+34
-1.23e+34
-1.23e+34
-1.23e+34
-1.23e+34
-1.23e+34
-1.23e+34
-1.23e+34
-1.23e+34
-1.23e+34
-1.23e+34
-1.23e+34
-1.23e+34
-1.23e+34
-1.23e+34
-1.23e+34
-1.23e+34
-1.23e+34
-1.23e+34
-1.23e+34
-1.23e+34
-1.23e+34
-1.23e+34
-1.23e+34
-1.23e+34
-1.23e+34
-1.23e+34
-1.23e+34
-1.23e+34
 0.440703
 0.442435
 0.444413
 0.4465
 0.448613
 0.450533
 0.452119
 0.453403
 0.454537
 0.455729
 0.457148
 0.458664
 0.460303
 0.461987
 0.463494
 0.464671
 0.465603
 0.466364
 0.467104
 0.467971
 0.468961
 0.470143
 0.47132
 0.472461
 0.47347
 0.474263
 0.4748
 0.475136
 0.475342
 0.475776
 0.476324
 0.476883
 0.477224
 0.477304
 0.476581
 0.4748
 0.472657
 0.471477
 0.47139
 0.47191
 0.472722
 0.473738
 0.474899
 0.47614
 0.477464
 0.478769
 0.479844
 0.480772
 0.481489
 0.48193
 0.48218
 0.48223
 0.482283
 0.482429
 0.482661
 0.482974
 0.483299
 0.483668
 0.484063
 0.48429
 0.484404
 0.484385
 0.484151
 0.483746
 0.483252
 0.482519
 0.481688
 0.480742
 0.47959
 0.478221
 0.47627
 0.473563
 0.470616
 0.468789
 0.468491
 0.469078
 0.469637
 0.46984
 0.469664
 0.469246
 0.468957
 0.468934
 0.468913
 0.468964
 0.46904
 0.469222
 0.469633
 0.470215
 0.470831
 0.471324
 0.471684
 0.471718
 0.471662
 0.471634
 0.47138
 0.470785
 0.470032
 0.469213
 0.468224
 0.467147
 0.465926
 0.464534
 0.46297
 0.461477
 0.460047
 0.458595
 0.457171
 0.455868
 0.454668
 0.453586
 0.452519
 0.451717